# Target Z    :  74
# Target A    : 184
# Target state:  
# Projectile  : p
# Reaction    : Inelastic scattering
# E-inc       :   65.000 MeV
# E-exc       :  0.11122 MeV (EXFOR:  0.11100)
# Quantity    : Angular distribution
# Frame       : C
# MF          :    4
# MT          :  601
# X4 ID       : E1090032 
# X4 code     : 74-W-184(P,INL)74-W-184,PAR,DA
# Author      : Ogawa                    
# Year        : 1986
# Data points :     45
#  Angle(deg)    xs(mb/sr) dxs(mb/sr) dAngle(deg)
  1.40800E+01  9.71400E+01  2.58000E+00
  1.50900E+01  8.68400E+01  1.90000E+00
  1.81000E+01  4.22600E+01  1.04000E+00
  1.91100E+01  2.91400E+01  5.60000E-01
  2.01100E+01  1.62000E+01  4.40000E-01
  2.11200E+01  8.75200E+00  3.01000E-01
  2.21200E+01  6.72200E+00  1.93000E-01
  2.31300E+01  6.80400E+00  2.36000E-01
  2.41400E+01  1.04700E+01  3.20000E-01
  2.51401E+01  1.60000E+01  3.30000E-01
  2.61500E+01  2.27600E+01  3.40000E-01
  2.71500E+01  2.67200E+01  3.90000E-01
  2.81600E+01  3.06400E+01  3.30000E-01
  2.91601E+01  3.14300E+01  3.30000E-01
  3.11700E+01  2.51600E+01  2.60000E-01
  3.21800E+01  1.93800E+01  2.10000E-01
  3.31800E+01  1.39300E+01  1.90000E-01
  3.41901E+01  9.24000E+00  1.30000E-01
  3.51900E+01  5.38600E+00  1.12000E-01
  3.62000E+01  3.45300E+00  4.20000E-02
  3.82101E+01  3.52400E+00  3.80000E-02
  4.02100E+01  6.90900E+00  5.70000E-02
  4.12201E+01  8.41200E+00  1.16000E-01
  4.22201E+01  9.54800E+00  6.00000E-02
  4.32301E+01  1.03500E+01  1.30000E-01
  4.42300E+01  1.01500E+01  6.00000E-02
  4.52401E+01  8.94600E+00  9.90000E-02
  4.62401E+01  7.20300E+00  4.10000E-02
  4.82501E+01  4.21700E+00  2.90000E-02
  4.92501E+01  2.79900E+00  4.40000E-02
  5.02601E+01  2.05700E+00  2.00000E-02
  5.12601E+01  1.55800E+00  2.90000E-02
  5.22601E+01  1.53900E+00  1.60000E-02
  5.42701E+01  2.15600E+00  1.80000E-02
  5.62801E+01  2.88000E+00  2.30000E-02
  5.82801E+01  3.05200E+00  2.10000E-02
  6.02901E+01  2.50700E+00  2.40000E-02
  6.22901E+01  1.71600E+00  1.40000E-02
  6.43001E+01  9.82100E-01  1.04000E-02
  6.63001E+01  6.27100E-01  7.30000E-03
  6.83101E+01  6.48800E-01  7.00000E-03
  7.03101E+01  8.28700E-01  8.70000E-03
  7.23201E+01  9.53000E-01  9.70000E-03
  7.43201E+01  9.02000E-01  9.30000E-03
  7.63201E+01  6.90900E-01  9.30000E-03
# Full reference:
#H.Ogawa,  H.Sakaguchi,  M.Nakamura,  T.Noro,  H.Sakamoto, T.Ichihara,  M.Yosoi,  M.Ieiri,  N.Isshiki,
# Y.Takeuchi, S.Kobayashi
#Jour. Physical Review, Part C, Nuclear Physics Vol.33, Issue.3, p.834, 1986
#Inelastic scattering of 65-MeV polarized protons from 178Hf, 180Hf, 182W, and 184W and multipole moments of the optical potential
#
