# Target Z    :  74
# Target A    : 182
# Target state:  
# Projectile  : p
# Reaction    : Inelastic scattering
# E-inc       :   65.000 MeV
# E-exc       :  0.10011 MeV (EXFOR:  0.10000)
# Quantity    : Angular distribution
# Frame       : C
# MF          :    4
# MT          :  601
# X4 ID       : E1090020 
# X4 code     : 74-W-182(P,INL)74-W-182,PAR,DA
# Author      : Ogawa                    
# Year        : 1986
# Data points :     46
#  Angle(deg)    xs(mb/sr) dxs(mb/sr) dAngle(deg)
  1.30800E+01  6.05000E+01  3.41000E+00
  1.40800E+01  8.24000E+01  2.01000E+00
  1.71000E+01  5.14000E+01  1.54000E+00
  1.81000E+01  3.91500E+01  6.80000E-01
  1.91100E+01  2.60300E+01  5.10000E-01
  2.01200E+01  1.54900E+01  4.70000E-01
  2.11200E+01  8.43300E+00  2.72000E-01
  2.21301E+01  5.10400E+00  2.37000E-01
  2.31300E+01  5.49300E+00  1.88000E-01
  2.41400E+01  8.79000E+00  2.74000E-01
  2.51401E+01  1.44300E+01  2.40000E-01
  2.61500E+01  1.92600E+01  3.20000E-01
  2.71500E+01  2.41000E+01  3.50000E-01
  2.81600E+01  2.65900E+01  3.60000E-01
  2.91601E+01  2.74500E+01  3.30000E-01
  3.01700E+01  2.58800E+01  2.70000E-01
  3.06701E+01  2.41200E+01  3.20000E-01
  3.11700E+01  2.26500E+01  2.30000E-01
  3.21800E+01  1.80700E+01  1.90000E-01
  3.26800E+01  1.57000E+01  2.20000E-01
  3.31800E+01  1.33100E+01  1.50000E-01
  3.41901E+01  9.10100E+00  1.36000E-01
  3.51900E+01  5.37300E+00  1.02000E-01
  3.62000E+01  3.27100E+00  4.20000E-02
  3.72001E+01  2.74900E+00  7.60000E-02
  3.82101E+01  3.01400E+00  2.80000E-02
  3.92100E+01  4.37700E+00  9.60000E-02
  4.02201E+01  5.93600E+00  4.90000E-02
  4.22301E+01  8.29500E+00  4.70000E-02
  4.32301E+01  8.92000E+00  9.10000E-02
  4.42401E+01  8.74000E+00  5.40000E-02
  4.62401E+01  6.78300E+00  4.10000E-02
  4.82501E+01  3.85900E+00  2.80000E-02
  4.92600E+01  2.75200E+00  3.90000E-02
  5.02601E+01  2.01900E+00  1.60000E-02
  5.22701E+01  1.40000E+00  1.60000E-02
  5.42701E+01  1.82500E+00  1.60000E-02
  5.62801E+01  2.43500E+00  1.90000E-02
  5.72801E+01  2.70700E+00  2.60000E-02
  5.82901E+01  2.66600E+00  1.90000E-02
  6.02901E+01  2.30500E+00  1.60000E-02
  6.23001E+01  1.60400E+00  1.20000E-02
  6.43001E+01  9.17700E-01  9.50000E-03
  6.63101E+01  5.99400E-01  6.30000E-03
  6.83101E+01  5.77100E-01  6.50000E-03
  7.03201E+01  7.19500E-01  7.00000E-03
# Full reference:
#H.Ogawa,  H.Sakaguchi,  M.Nakamura,  T.Noro,  H.Sakamoto, T.Ichihara,  M.Yosoi,  M.Ieiri,  N.Isshiki,
# Y.Takeuchi, S.Kobayashi
#Jour. Physical Review, Part C, Nuclear Physics Vol.33, Issue.3, p.834, 1986
#Inelastic scattering of 65-MeV polarized protons from 178Hf, 180Hf, 182W, and 184W and multipole moments of the optical potential
#
