# Target Z    :  13
# Target A    :  27
# Target state:  
# Projectile  : p
# Reaction    : (p,xa)
# E-inc       :   72.300 MeV
# Quantity    : Differential cross section
# Frame       : L
# MF          :    5
# MT          :  207
# X4 ID       : O0754002 
# X4 code     : 13-AL-27(P,X)2-HE-4,,DE
# Author      : Lewandowski              
# Year        : 1980
# Data points :     35
# E-out(MeV)  xs(mb/MeV)  dxs(mb/MeV)     dE(MeV)      Evaluation  C/E(F)      Chi-2     Delta(mb)
  2.11000E+00  2.29000E-09  4.35100E-11  0.00000E+00
  2.91000E+00  1.62000E-08  3.07800E-10  0.00000E+00
  4.35000E+00  1.85000E-08  3.51500E-10  0.00000E+00
  4.44000E+00  5.60000E-08  1.06400E-09  0.00000E+00
  6.38000E+00  3.90000E-08  7.41000E-10  0.00000E+00
  7.01000E+00  6.01000E-08  1.14100E-09  0.00000E+00
  8.08000E+00  6.79000E-08  1.29000E-09  0.00000E+00
  9.33000E+00  8.10000E-08  1.53900E-09  0.00000E+00
  1.02400E+01  8.80000E-08  1.67200E-09  0.00000E+00
  1.11300E+01  9.94000E-08  1.88800E-09  0.00000E+00
  1.42500E+01  1.05300E-07  2.00000E-09  0.00000E+00
  1.80900E+01  1.22600E-07  2.32900E-09  0.00000E+00
  2.01000E+01  1.35000E-07  2.56500E-09  0.00000E+00
  2.08300E+01  1.40700E-07  2.67300E-09  0.00000E+00
  2.28400E+01  1.48800E-07  2.82700E-09  0.00000E+00
  2.64500E+01  2.12000E-07  4.02800E-09  0.00000E+00
  2.69700E+01  2.40000E-07  4.56000E-09  0.00000E+00
  2.88000E+01  2.53000E-07  4.80700E-09  0.00000E+00
  3.38600E+01  3.97000E-07  7.54300E-09  0.00000E+00
  3.51300E+01  4.32000E-07  8.20800E-09  0.00000E+00
  3.64000E+01  4.69000E-07  8.91100E-09  0.00000E+00
  3.83600E+01  6.15000E-07  1.16800E-08  0.00000E+00
  3.96400E+01  6.59000E-07  1.25200E-08  0.00000E+00
  4.01800E+01  7.05000E-07  1.33900E-08  0.00000E+00
  4.16200E+01  8.08000E-07  1.53500E-08  0.00000E+00
  4.25100E+01  9.13000E-07  1.73400E-08  0.00000E+00
  4.37700E+01  1.03200E-06  1.96000E-08  0.00000E+00
  4.46600E+01  1.18200E-06  2.24500E-08  0.00000E+00
  4.59300E+01  1.30100E-06  2.47100E-08  0.00000E+00
  4.66300E+01  1.53100E-06  2.90800E-08  0.00000E+00
  4.78700E+01  1.85000E-06  3.51500E-08  0.00000E+00
  5.05700E+01  2.40000E-06  4.56000E-08  0.00000E+00
  5.20000E+01  2.98000E-06  5.66200E-08  0.00000E+00
  5.27200E+01  3.19000E-06  6.06100E-08  0.00000E+00
  5.37600E+01  4.18000E-06  7.94200E-08  0.00000E+00
# Full reference:
#Z.Lewandowski,  E.Loeffler,  R.Wagner,  H.H.Mueller, W.Reichart,  P.Schober,  E.Gadioli,  E.Gadioli Erba
#
#Jour. Lettere al Nuovo Cimento Vol.28, p.15, 1980
#Proton-Induced Alpha- And Tritium-Emission at 72 MeV.
